time (s)	coil I (A)	last det (V)	int current (uC)
9272.625634	1.105518	0.479218	493.060852
9272.626505	1.566368	0.479218	1857.367676
9272.627368	1.560736	0.479218	3204.282715
9272.628433	1.515231	0.479218	4818.003418
9272.629335	1.473864	0.479218	6147.428223
9272.630209	1.436646	0.479218	7403.056641
9272.631142	1.398831	0.479218	8708.166016
9272.632142	1.359921	0.479218	10068.086914
9272.633068	1.325486	0.479218	11295.486328
9272.633940	1.294061	0.479218	12423.908203
9272.634990	1.159772	0.479218	13641.667969
9272.635870	0.208114	0.479218	13824.808594
9272.636741	0.097844	0.479218	13910.031250
9272.637600	0.098071	0.479218	13994.274414
9272.638659	0.098002	0.479218	14098.058594
9272.639547	0.098049	0.479218	14185.125977
9272.640426	0.098020	0.479218	14271.285156
9272.641404	0.098082	0.479218	14367.209961
9272.642342	0.097991	0.479218	14459.125000
9272.643261	0.098027	0.479218	14549.211914
9272.644127	0.098024	0.479218	14634.100586
9273.592272	1.085306	0.535663	478.620117
9273.593134	1.564435	0.535663	1827.162842
9273.594220	1.552709	0.535663	3513.404541
9273.595235	1.507646	0.535663	5043.665527
9273.596109	1.467993	0.535663	6326.691406
9273.597096	1.426725	0.535663	7734.868652
9273.598149	1.384358	0.535663	9192.597656
9273.599054	1.349154	0.535663	10413.582031
9273.599923	1.315822	0.535663	11557.031250
9273.601029	1.278387	0.535663	12970.927734
9273.602004	0.772017	0.535663	13723.643555
9273.602870	0.109343	0.535663	13818.334961
9273.603935	0.098064	0.535663	13922.773437
9273.604972	0.098112	0.535663	14024.515625
9273.605864	0.098049	0.535663	14111.975586
9273.606785	0.098090	0.535663	14202.316406
9273.607833	0.098064	0.535663	14305.087891
9273.608782	0.098068	0.535663	14398.154297
9273.609649	0.098002	0.535663	14483.122070
9273.610685	0.098130	0.535663	14584.784180
9273.611701	0.098046	0.535663	14684.398437
9274.684916	1.119404	0.519300	538.433472
9274.685791	1.568123	0.519300	1910.540649
9274.686728	1.556971	0.519300	3369.422852
9274.687784	1.510455	0.519300	4964.463867
9274.688722	1.468001	0.519300	6341.448242
9274.689587	1.431163	0.519300	7579.404297
9274.690651	1.388796	0.519300	9057.083984
9274.691673	1.349066	0.519300	10435.830078
9274.692544	1.316667	0.519300	11582.647461
9274.693506	1.283291	0.519300	12817.173828
9274.694554	0.810483	0.519300	13666.560547
9274.695480	0.109508	0.519300	13767.964844
9274.696344	0.098097	0.519300	13852.720703
9274.697413	0.098141	0.519300	13957.632812
9274.698421	0.098020	0.519300	14056.436523
9274.699313	0.098042	0.519300	14143.889648
9274.700285	0.098112	0.519300	14239.253906
9274.701336	0.098068	0.519300	14342.323242
9274.702239	0.098163	0.519300	14430.963867
9274.703100	0.098130	0.519300	14515.454102
9274.704195	0.098181	0.519300	14622.962891
9275.652540	1.064304	0.529048	452.329285
9275.653536	1.565094	0.529048	2011.162842
9275.654587	1.549428	0.529048	3639.611328
9275.655497	1.508364	0.529048	5012.222656
9275.656364	1.467909	0.529048	6284.899902
9275.657467	1.423099	0.529048	7854.578613
9275.658431	1.383805	0.529048	9188.566406
9275.659314	1.350084	0.529048	10380.690430
9275.660340	1.313016	0.529048	11727.844727
9275.661388	1.276641	0.529048	13065.763672
9275.662283	0.778033	0.529048	13762.103516
9275.663176	0.110588	0.529048	13860.859375
9275.664250	0.097928	0.529048	13966.034180
9275.665207	0.097888	0.529048	14059.712891
9275.666066	0.097943	0.529048	14143.845703
9275.667096	0.098005	0.529048	14244.791016
9275.668129	0.098009	0.529048	14346.034180
9275.669004	0.098090	0.529048	14431.862305
9275.669923	0.098042	0.529048	14521.962891
9275.670980	0.097961	0.529048	14625.507812
9275.671920	0.097969	0.529048	14717.598633
9276.742081	1.076162	0.551530	461.673553
9276.742948	1.563754	0.551530	1817.447998
9276.744043	1.552115	0.551530	3517.014404
9276.745020	1.508983	0.551530	4991.291016
9276.745894	1.469385	0.551530	6275.533203
9276.746940	1.425297	0.551530	7766.393555
9276.747990	1.383354	0.551530	9218.916016
9276.748882	1.348513	0.551530	10421.790039
9276.749820	1.314338	0.551530	11654.639648
9276.750891	1.276857	0.551530	13022.153320
9276.751837	0.752472	0.551530	13733.992187
9276.752699	0.108534	0.551530	13827.548828
9276.753764	0.097972	0.551530	13931.889648
9276.754772	0.097980	0.551530	14030.653320
9276.755672	0.098020	0.551530	14118.871094
9276.756629	0.098031	0.551530	14212.686523
9276.757671	0.098046	0.551530	14314.849609
9276.758586	0.098046	0.551530	14404.561523
9276.759447	0.098038	0.551530	14488.972656
9276.760521	0.098148	0.551530	14594.383789
9276.761526	0.097991	0.551530	14692.864258
9277.711820	1.079235	0.528130	474.863220
9277.712693	1.564603	0.528130	1840.761963
9277.713674	1.556873	0.528130	3368.053955
9277.714691	1.511737	0.528130	4905.490234
9277.715583	1.471333	0.528130	6217.918945
9277.716444	1.433954	0.528130	7452.553223
9277.717500	1.391228	0.528130	8921.689453
9277.718441	1.354834	0.528130	10196.587891
9277.719324	1.322318	0.528130	11364.194336
9277.720286	1.288682	0.528130	12603.906250
9277.721329	1.013536	0.528130	13661.024414
9277.722227	0.142240	0.528130	13788.755859
9277.723089	0.097870	0.528130	13873.120117
9277.724152	0.098038	0.528130	13977.334961
9277.725104	0.098013	0.528130	14070.642578
9277.725981	0.098057	0.528130	14156.638672
9277.726928	0.098049	0.528130	14249.491211
9277.727949	0.097998	0.528130	14349.546875
9277.728834	0.098064	0.528130	14436.333008
9277.729694	0.098057	0.528130	14520.662109
9277.730748	0.098064	0.528130	14624.021484
9278.797346	1.136840	0.567611	599.114502
9278.798304	1.572554	0.567611	2105.620850
9278.799223	1.551925	0.567611	3531.839844
9278.800095	1.512803	0.567611	4851.003906
9278.801129	1.467008	0.567611	6367.890137
9278.802014	1.429347	0.567611	7632.862305
9278.802886	1.393539	0.567611	8848.028320
9278.803815	1.357427	0.567611	10109.078125
9278.804806	1.320476	0.567611	11417.669922
9278.805730	1.288088	0.567611	12607.863281
9278.806614	1.163778	0.567611	13636.642578
9278.807669	0.158298	0.567611	13803.647461
9278.808574	0.097892	0.567611	13892.239258
9278.809488	0.097965	0.567611	13981.779297
9278.810353	0.098097	0.567611	14066.632812
9278.811390	0.097906	0.567611	14168.162109
9278.812274	0.097965	0.567611	14254.763672
9278.813147	0.097994	0.567611	14340.312500
9278.814147	0.098057	0.567611	14438.369141
9278.815072	0.098035	0.567611	14529.050781
9278.815985	0.097917	0.567611	14618.449219
9279.772098	1.070098	0.534261	458.001801
9279.772971	1.563871	0.534261	1823.260986
9279.773834	1.559905	0.534261	3169.458984
9279.774848	1.517626	0.534261	4708.331543
9279.775773	1.475559	0.534261	6073.223633
9279.776654	1.437869	0.534261	7339.985840
9279.777561	1.401046	0.534261	8610.734375
9279.778514	1.363037	0.534261	9909.708984
9279.779441	1.328815	0.534261	11141.520508
9279.780307	1.296515	0.534261	12264.302734
9279.781316	1.237687	0.534261	13513.128906
9279.782226	0.289493	0.534261	13776.568359
9279.783146	0.098053	0.534261	13866.777344
9279.784007	0.098057	0.534261	13951.204102
9279.784998	0.098013	0.534261	14048.334961
9279.785924	0.098005	0.534261	14139.087891
9279.786789	0.098141	0.534261	14223.979492
9279.787806	0.098020	0.534261	14323.666016
9279.788685	0.097965	0.534261	14409.777344
9279.789609	0.098079	0.534261	14500.402344
9279.790467	0.098024	0.534261	14584.506836
9280.851400	1.077675	0.567362	464.477722
9280.852271	1.564442	0.567362	1827.106934
9280.853308	1.553617	0.567362	3438.207764
9280.854333	1.508430	0.567362	4984.348633
9280.855227	1.468231	0.567362	6296.947266
9280.856181	1.428490	0.567362	7659.726562
9280.857245	1.385127	0.567362	9133.501953
9280.858183	1.349022	0.567362	10398.884766
9280.859049	1.316422	0.567362	11538.906250
9280.860131	1.279123	0.567362	12922.917969
9280.861146	0.751340	0.567362	13685.528320
9280.862038	0.106736	0.567362	13780.736328
9280.863004	0.098057	0.567362	13875.458984
9280.864047	0.098093	0.567362	13977.770508
9280.864957	0.098013	0.567362	14066.961914
9280.865818	0.098064	0.567362	14151.394531
9280.866899	0.098115	0.567362	14257.457031
9280.867894	0.097969	0.567362	14354.935547
9280.868773	0.098035	0.567362	14441.108398
9280.869782	0.097976	0.567362	14539.965820
9280.870822	0.098035	0.567362	14641.921875
9281.832381	1.080161	0.540976	460.148621
9281.833474	1.571038	0.540976	2177.292725
9281.834461	1.547274	0.540976	3704.452148
9281.835353	1.507361	0.540976	5049.018066
9281.836349	1.463075	0.540976	6506.240723
9281.837421	1.418756	0.540976	8027.147461
9281.838308	1.382164	0.540976	9253.126953
9281.839196	1.347162	0.540976	10449.406250
9281.840281	1.308834	0.540976	11869.491211
9281.841234	1.275465	0.540976	13085.009766
9281.842102	0.802874	0.540976	13781.904297
9281.843106	0.106307	0.540976	13888.636719
9281.844158	0.097859	0.540976	13991.583984
9281.845025	0.098009	0.540976	14076.557617
9281.845944	0.098090	0.540976	14166.702148
9281.847005	0.098068	0.540976	14270.751953
9281.847947	0.098046	0.540976	14363.111328
9281.848816	0.097983	0.540976	14448.258789
9281.849829	0.098104	0.540976	14547.638672
9281.850863	0.097958	0.540976	14648.926758
9281.851752	0.098064	0.540976	14736.105469
9282.905534	1.075580	0.578826	454.970245
9282.906616	1.570649	0.578826	2154.412842
9282.907614	1.547040	0.578826	3698.358398
9282.908512	1.506921	0.578826	5051.573730
9282.909510	1.462562	0.578826	6511.210937
9282.910558	1.419148	0.578826	7998.478027
9282.911454	1.382281	0.578826	9237.001953
9282.912314	1.348022	0.578826	10396.300781
9282.913420	1.309277	0.578826	11844.361328
9282.914390	1.275117	0.578826	13081.224609
9282.915269	0.786683	0.578826	13772.718750
9282.916297	0.106945	0.578826	13882.658203
9282.917352	0.098042	0.578826	13986.092773
9282.918219	0.098005	0.578826	14071.063477
9282.919111	0.098123	0.578826	14158.588867
9282.920186	0.097972	0.578826	14263.909180
9282.921145	0.097947	0.578826	14357.839844
9282.922016	0.098027	0.578826	14443.221680
9282.923028	0.098090	0.578826	14542.488281
9282.924064	0.097921	0.578826	14643.934570
9282.924954	0.098020	0.578826	14731.172852
9283.892811	1.185601	0.557275	676.977905
9283.893867	1.572755	0.557275	2337.807129
9283.894751	1.547055	0.557275	3705.403320
9283.895623	1.506013	0.557275	5018.646973
9283.896728	1.458918	0.557275	6630.751953
9283.897683	1.418998	0.557275	7985.894531
9283.898544	1.383863	0.557275	9177.401367
9283.899570	1.344375	0.557275	10556.730469
9283.900637	1.306249	0.557275	11950.498047
9283.901521	1.274945	0.557275	13077.549805
9283.902461	0.714943	0.557275	13749.595703
9283.903523	0.100697	0.557275	13856.536133
9283.904465	0.098068	0.557275	13948.916016
9283.905335	0.098082	0.557275	14034.248047
9283.906375	0.098035	0.557275	14136.204102
9283.907398	0.098009	0.557275	14236.467773
9283.908295	0.097991	0.557275	14324.365234
9283.909246	0.098093	0.557275	14417.652344
9283.910306	0.098068	0.557275	14521.604492
9283.911235	0.098005	0.557275	14612.651367
9283.912096	0.098020	0.557275	14697.046875
9284.958655	1.067208	0.604249	455.697937
9284.959650	1.563915	0.604249	2011.793213
9284.960667	1.550193	0.604249	3588.339355
9284.961547	1.510265	0.604249	4917.372559
9284.962419	1.470381	0.604249	6199.544434
9284.963469	1.426842	0.604249	7697.728516
9284.964406	1.388676	0.604249	8998.917969
9284.965293	1.354464	0.604249	10200.328125
9284.966245	1.319813	0.604249	11456.790039
9284.967277	1.283456	0.604249	12781.316406
9284.968170	1.032477	0.604249	13703.318359
9284.969038	0.151600	0.604249	13834.907227
9284.970100	0.097914	0.604249	13938.891602
9284.971038	0.098060	0.604249	14030.872070
9284.971907	0.097976	0.604249	14116.013672
9284.972847	0.098123	0.604249	14208.249023
9284.973882	0.097969	0.604249	14309.646484
9284.974763	0.097958	0.604249	14395.947266
9284.975620	0.097976	0.604249	14479.913086
9284.976640	0.098075	0.604249	14579.949219
9284.977607	0.097892	0.604249	14674.610352
9285.952984	1.093125	0.580055	496.278748
9285.954024	1.572374	0.580055	2131.547852
9285.954924	1.551482	0.580055	3527.881592
9285.955805	1.512437	0.580055	4860.337891
9285.956803	1.467865	0.580055	6325.267090
9285.957737	1.427911	0.580055	7658.936523
9285.958660	1.390613	0.580055	8942.471680
9285.959525	1.356072	0.580055	10115.473633
9285.960578	1.318261	0.580055	11503.601562
9285.961460	1.286975	0.580055	12638.713867
9285.962330	1.162258	0.580055	13649.878906
9285.963319	0.196904	0.580055	13844.617187
9285.964241	0.097903	0.580055	13934.883789
9285.965153	0.097958	0.580055	14024.221680
9285.966029	0.098093	0.580055	14110.151367
9285.967043	0.098024	0.580055	14209.547852
9285.967938	0.097939	0.580055	14297.204102
9285.968813	0.097939	0.580055	14382.901367
9285.969713	0.098075	0.580055	14471.168945
9285.970715	0.097877	0.580055	14569.242187
9285.971636	0.098016	0.580055	14659.515625
9287.013864	1.127417	0.613228	521.994080
9287.014755	1.567518	0.613228	1918.652832
9287.015743	1.553990	0.613228	3453.995605
9287.016783	1.507859	0.613228	5022.168945
9287.017697	1.466360	0.613228	6362.421875
9287.018567	1.428483	0.613228	7605.201660
9287.019655	1.385581	0.613228	9112.713867
9287.020633	1.348249	0.613228	10431.301758
9287.021503	1.315961	0.613228	11576.187500
9287.022507	1.281544	0.613228	12862.857422
9287.023563	0.786182	0.613228	13693.065430
9287.024444	0.109376	0.613228	13789.425781
9287.025316	0.097983	0.613228	13874.867187
9287.026429	0.098042	0.613228	13983.988281
9287.027375	0.098031	0.613228	14076.725586
9287.028242	0.098075	0.613228	14161.756836
9287.029248	0.098101	0.613228	14260.446289
9287.030289	0.098112	0.613228	14362.580078
9287.031176	0.098108	0.613228	14449.601562
9287.032083	0.098123	0.613228	14538.598633
9287.033156	0.098071	0.613228	14643.829102
9288.010239	1.127629	0.608390	551.410767
9288.011118	1.567826	0.608390	1929.529785
9288.012058	1.555239	0.608390	3391.454590
9288.013124	1.508265	0.608390	4999.265625
9288.014063	1.465785	0.608390	6375.637695
9288.014927	1.428893	0.608390	7610.201172
9288.015989	1.386661	0.608390	9082.835937
9288.017013	1.347301	0.608390	10462.472656
9288.017897	1.314518	0.608390	11624.506836
9288.018860	1.280947	0.608390	12858.058594
9288.019944	0.745598	0.608390	13666.287109
9288.020847	0.105396	0.608390	13761.458984
9288.021716	0.097958	0.608390	13846.583984
9288.022789	0.098042	0.608390	13951.783203
9288.023781	0.097965	0.608390	14048.964844
9288.024670	0.098005	0.608390	14136.091797
9288.025652	0.098071	0.608390	14232.397461
9288.026691	0.098079	0.608390	14334.300781
9288.027596	0.097980	0.608390	14422.972656
9288.028460	0.098057	0.608390	14507.693359
9288.029566	0.098079	0.608390	14616.167969
9289.066997	1.131229	0.633865	529.415283
9289.067878	1.567266	0.633865	1910.176270
9289.068886	1.553221	0.633865	3475.823242
9289.069930	1.507009	0.633865	5049.140625
9289.070822	1.466345	0.633865	6357.120605
9289.071684	1.428446	0.633865	7588.441406
9289.072764	1.385772	0.633865	9085.074219
9289.073764	1.347162	0.633865	10432.236328
9289.074664	1.314646	0.633865	11615.417969
9289.075653	1.280295	0.633865	12881.629883
9289.076723	0.737029	0.633865	13670.250977
9289.077607	0.105967	0.633865	13763.925781
9289.078489	0.097914	0.633865	13850.286133
9289.079584	0.098053	0.633865	13957.654297
9289.080537	0.098042	0.633865	14051.087891
9289.081406	0.098042	0.633865	14136.286133
9289.082435	0.098104	0.633865	14237.235352
9289.083468	0.098038	0.633865	14338.508789
9289.084361	0.098020	0.633865	14426.041016
9289.085300	0.098027	0.633865	14518.088867
9289.086371	0.098104	0.633865	14623.158203
9290.068413	1.062821	0.640629	448.510468
9290.069457	1.568218	0.640629	2085.729736
9290.070412	1.550526	0.640629	3566.481934
9290.071290	1.511012	0.640629	4893.150391
9290.072200	1.469106	0.640629	6230.037109
9290.073290	1.424597	0.640629	7782.848145
9290.074188	1.387895	0.640629	9029.177734
9290.075058	1.354288	0.640629	10207.408203
9290.076088	1.316199	0.640629	11563.092773
9290.077054	1.282584	0.640629	12802.069336
9290.077930	1.032971	0.640629	13706.952148
9290.078831	0.152340	0.640629	13844.210937
9290.079916	0.097914	0.640629	13950.447266
9290.080795	0.098060	0.640629	14036.642578
9290.081654	0.097998	0.640629	14120.823242
9290.082716	0.098134	0.640629	14225.041016
9290.083683	0.098020	0.640629	14319.826172
9290.084552	0.098042	0.640629	14405.024414
9290.085408	0.097950	0.640629	14488.870117
9290.086502	0.097950	0.640629	14596.028320
9290.087395	0.098031	0.640629	14683.570312
9291.123214	1.140725	0.650422	563.518188
9291.124100	1.568540	0.650422	1953.244629
9291.124969	1.557107	0.650422	3306.370605
9291.125872	1.516816	0.650422	4676.055664
9291.126883	1.471047	0.650422	6163.284668
9291.127809	1.432478	0.650422	7489.759277
9291.128687	1.396824	0.650422	8716.169922
9291.129686	1.358694	0.650422	10073.504883
9291.130590	1.324124	0.650422	11270.512695
9291.131513	1.291732	0.650422	12462.781250
9291.132374	1.196338	0.650422	13492.828125
9291.133407	0.204994	0.650422	13704.586914
9291.134302	0.097826	0.650422	13792.141602
9291.135175	0.097983	0.650422	13877.680664
9291.136134	0.098031	0.650422	13971.692383
9291.137082	0.097943	0.650422	14064.541992
9291.138000	0.097928	0.650422	14154.440430
9291.138864	0.098049	0.650422	14239.155273
9291.139903	0.098042	0.650422	14341.020508
9291.140789	0.097958	0.650422	14427.811523
9291.141664	0.097954	0.650422	14513.521484
9292.125713	1.144794	0.658635	576.976013
9292.126714	1.572444	0.658635	2150.992187
9292.127612	1.550717	0.658635	3543.535645
9292.128579	1.507683	0.658635	5001.465332
9292.129645	1.460438	0.658635	6558.292480
9292.130551	1.422034	0.658635	7846.655273
9292.131415	1.385816	0.658635	9044.000000
9292.132493	1.345803	0.658635	10494.775391
9292.133461	1.310218	0.658635	11763.066406
9292.134339	1.279797	0.658635	12886.728516
9292.135370	0.768190	0.658635	13678.732422
9292.136409	0.103275	0.658635	13786.035156
9292.137289	0.097991	0.658635	13872.266602
9292.138171	0.097969	0.658635	13958.674805
9292.139255	0.098159	0.658635	14065.079102
9292.140199	0.098027	0.658635	14157.617187
9292.141055	0.098031	0.658635	14241.531250
9292.142059	0.098159	0.658635	14340.083008
9292.143101	0.098068	0.658635	14442.269531
9292.143991	0.098042	0.658635	14529.527344
9292.144900	0.098119	0.658635	14618.717773
9293.178406	1.147738	0.676372	610.596680
9293.179464	1.572177	0.676372	2273.959473
9293.180376	1.546747	0.676372	3684.592773
9293.181240	1.506519	0.676372	4986.224609
9293.182331	1.459519	0.676372	6578.559570
9293.183322	1.417892	0.676372	7983.690430
9293.184208	1.382402	0.676372	9208.499023
9293.185244	1.343668	0.676372	10600.539062
9293.186294	1.305619	0.676372	11971.438477
9293.187187	1.273890	0.676372	13109.022461
9293.188081	0.707461	0.676372	13741.492187
9293.189169	0.100770	0.676372	13851.129883
9293.190123	0.098013	0.676372	13944.633789
9293.190982	0.098145	0.676372	14028.939453
9293.191988	0.098090	0.676372	14127.617187
9293.193032	0.097965	0.676372	14229.892578
9293.193920	0.098093	0.676372	14316.999023
9293.194847	0.098079	0.676372	14407.917969
9293.195903	0.098090	0.676372	14511.500977
9293.196843	0.098057	0.676372	14603.673828
9293.197714	0.098093	0.676372	14689.113281
9294.181933	1.168561	0.640605	615.831482
9294.182968	1.572623	0.640605	2243.496582
9294.183859	1.548717	0.640605	3623.403320
9294.184803	1.506639	0.640605	5045.670898
9294.185851	1.459871	0.640605	6575.615234
9294.186786	1.420646	0.640605	7903.918945
9294.187654	1.385211	0.640605	9106.282227
9294.188717	1.345349	0.640605	10536.388672
9294.189726	1.308402	0.640605	11856.566406
9294.190602	1.277589	0.640605	12975.734375
9294.191568	0.756969	0.640605	13706.966797
9294.192630	0.102404	0.640605	13815.719727
9294.193540	0.098035	0.640605	13904.931641
9294.194410	0.098203	0.640605	13990.368164
9294.195491	0.098112	0.640605	14096.426758
9294.196483	0.098060	0.640605	14193.702148
9294.197378	0.098090	0.640605	14281.492187
9294.198356	0.098093	0.640605	14377.427734
9294.199411	0.098130	0.640605	14480.955078
9294.200313	0.098141	0.640605	14569.478516
9294.201180	0.098097	0.640605	14654.528320
9295.234519	1.087511	0.681246	490.467499
9295.235611	1.570572	0.681246	2205.532715
9295.236574	1.546930	0.681246	3695.226318
9295.237436	1.507625	0.681246	4994.798828
9295.238451	1.462112	0.681246	6478.842285
9295.239498	1.418712	0.681246	7964.233887
9295.240399	1.382329	0.681246	9209.712891
9295.241336	1.346488	0.681246	10471.372070
9295.242403	1.307618	0.681246	11866.600586
9295.243347	1.274832	0.681246	13070.041016
9295.244219	0.785548	0.681246	13755.039062
9295.245283	0.102557	0.681246	13864.160156
9295.246289	0.097994	0.681246	13962.742187
9295.247179	0.098038	0.681246	14049.996094
9295.248131	0.098002	0.681246	14143.293945
9295.249188	0.097987	0.681246	14246.866211
9295.250117	0.098057	0.681246	14337.960937
9295.250978	0.098024	0.681246	14422.359375
9295.252053	0.098119	0.681246	14527.836914
9295.253042	0.097928	0.681246	14624.688477
9295.253919	0.098079	0.681246	14710.703125
9296.238011	1.062773	0.606352	449.553162
9296.239003	1.564113	0.606352	2001.152832
9296.239938	1.552745	0.606352	3452.969727
9296.240854	1.512429	0.606352	4838.354980
9296.241734	1.472183	0.606352	6133.875977
9296.242776	1.428999	0.606352	7622.893066
9296.243674	1.392169	0.606352	8873.060547
9296.244551	1.357859	0.606352	10063.902344
9296.245518	1.322780	0.606352	11343.030273
9296.246500	1.287803	0.606352	12607.652344
9296.247427	1.130742	0.606352	13655.850586
9296.248298	0.193085	0.606352	13824.027344
9296.249338	0.098024	0.606352	13925.971680
9296.250206	0.098057	0.606352	14011.084961
9296.251080	0.098145	0.606352	14096.863281
9296.251961	0.098163	0.606352	14183.344727
9296.252999	0.097976	0.606352	14285.043945
9296.253893	0.098042	0.606352	14372.693359
9296.254765	0.098060	0.606352	14458.202148
9296.255749	0.098167	0.606352	14554.797852
9296.256683	0.098046	0.606352	14646.372070
9297.287612	1.091422	0.675156	466.037231
9297.288731	1.570920	0.675156	2223.896973
9297.289695	1.546575	0.675156	3714.794922
9297.290566	1.506929	0.675156	5027.330078
9297.291621	1.460153	0.675156	6567.791016
9297.292650	1.417379	0.675156	8026.274414
9297.293551	1.380941	0.675156	9270.501953
9297.294502	1.345269	0.675156	10549.852539
9297.295547	1.306765	0.675156	11915.421875
9297.296483	1.274308	0.675156	13108.173828
9297.297352	0.767296	0.675156	13774.954102
9297.298414	0.102788	0.675156	13884.115234
9297.299416	0.098024	0.675156	13982.334961
9297.300293	0.098046	0.675156	14068.321289
9297.301265	0.098152	0.675156	14163.724609
9297.302308	0.098097	0.675156	14266.040039
9297.303222	0.098108	0.675156	14355.710937
9297.304079	0.098057	0.675156	14439.745117
9297.305133	0.098141	0.675156	14543.185547
9297.306136	0.098086	0.675156	14641.565430
9297.307033	0.098064	0.675156	14729.529297
9298.294221	1.086738	0.576583	481.425079
9298.295324	1.571155	0.576583	2214.408936
9298.296290	1.546549	0.576583	3708.375488
9298.297165	1.506958	0.576583	5026.963867
9298.298231	1.459666	0.576583	6582.967285
9298.299258	1.416595	0.576583	8037.810547
9298.300156	1.380571	0.576583	9277.563477
9298.301115	1.344580	0.576583	10567.015625
9298.302171	1.305758	0.576583	11945.896484
9298.303096	1.273550	0.576583	13123.929687
9298.303969	0.732733	0.576583	13763.605469
9298.305044	0.101656	0.576583	13872.885742
9298.306035	0.098134	0.576583	13970.135742
9298.306914	0.098086	0.576583	14056.353516
9298.307891	0.098145	0.576583	14152.240234
9298.308940	0.098086	0.576583	14255.132812
9298.309844	0.098148	0.576583	14343.858398
9298.310701	0.098075	0.576583	14427.908203
9298.311759	0.098064	0.576583	14531.660156
9298.312757	0.098148	0.576583	14629.612305
9298.313645	0.098119	0.576583	14716.742187
9299.342795	1.070226	0.656291	468.758911
9299.343657	1.563607	0.656291	1816.588257
9299.344664	1.554302	0.656291	3381.770020
9299.345711	1.508430	0.656291	4961.096191
9299.346605	1.467865	0.656291	6273.367187
9299.347533	1.428732	0.656291	7599.230469
9299.348610	1.385200	0.656291	9091.090820
9299.349565	1.348755	0.656291	10379.151367
9299.350436	1.316239	0.656291	11525.595703
9299.351482	1.279911	0.656291	12864.382812
9299.352519	0.775294	0.656291	13668.363281
9299.353407	0.108135	0.656291	13764.386719
9299.354366	0.098119	0.656291	13858.482422
9299.355431	0.098053	0.656291	13962.909180
9299.356358	0.098046	0.656291	14053.797852
9299.357219	0.098097	0.656291	14138.259766
9299.358286	0.098159	0.656291	14242.996094
9299.359271	0.098035	0.656291	14339.560547
9299.360158	0.098082	0.656291	14426.559570
9299.361146	0.098148	0.656291	14523.530273
9299.362191	0.098137	0.656291	14626.083984
9300.349400	1.081641	0.553524	482.411713
9300.350268	1.565255	0.553524	1841.053223
9300.351184	1.557045	0.553524	3267.306152
9300.352253	1.511125	0.553524	4882.699219
9300.353151	1.470139	0.553524	6202.884277
9300.354028	1.432939	0.553524	7459.572266
9300.355047	1.391525	0.553524	8877.536133
9300.356025	1.353768	0.553524	10201.521484
9300.356903	1.321194	0.553524	11361.529297
9300.357792	1.289004	0.553524	12507.454102
9300.358886	1.038076	0.553524	13643.109375
9300.359774	0.150601	0.553524	13776.842773
9300.360633	0.097914	0.553524	13860.951172
9300.361693	0.098101	0.553524	13964.937500
9300.362655	0.098060	0.553524	14059.271484
9300.363539	0.098009	0.553524	14145.911133
9300.364395	0.098071	0.553524	14229.860352
9300.365480	0.097991	0.553524	14336.180664
9300.366373	0.098130	0.553524	14423.810547
9300.367253	0.098101	0.553524	14510.138672
9300.368229	0.098137	0.553524	14605.920898
9301.397940	1.074617	0.627795	450.264374
9301.399014	1.571653	0.627795	2138.219482
9301.399911	1.551240	0.627795	3529.682129
9301.400788	1.512316	0.627795	4855.982910
9301.401755	1.469407	0.627795	6276.899414
9301.402710	1.428607	0.627795	7641.219238
9301.403640	1.391001	0.627795	8934.849609
9301.404511	1.356965	0.627795	10116.766602
9301.405546	1.319330	0.627795	11482.273437
9301.406427	1.287821	0.627795	12616.843750
9301.407295	1.179452	0.627795	13640.608398
9301.408237	0.219423	0.627795	13847.304687
9301.409231	0.098134	0.627795	13944.849609
9301.410141	0.098093	0.627795	14034.114258
9301.411015	0.098090	0.627795	14119.844727
9301.412055	0.098203	0.627795	14221.975586
9301.412958	0.098115	0.627795	14310.573242
9301.413879	0.098115	0.627795	14400.937500
9301.414742	0.098156	0.627795	14485.645508
9301.415768	0.098020	0.627795	14586.213867
9301.416648	0.098082	0.627795	14672.526367
9302.403517	1.074155	0.529415	455.441803
9302.404574	1.569990	0.529415	2114.921631
9302.405587	1.546677	0.529415	3681.705566
9302.406491	1.506138	0.529415	5043.253906
9302.407466	1.463178	0.529415	6469.852051
9302.408535	1.418320	0.529415	7986.036621
9302.409456	1.381113	0.529415	9258.041992
9302.410324	1.346832	0.529415	10427.092773
9302.411409	1.308171	0.529415	11846.458984
9302.412400	1.273550	0.529415	13108.546875
9302.413301	0.723757	0.529415	13760.652344
9302.414314	0.104883	0.529415	13866.898437
9302.415361	0.097991	0.529415	13969.495117
9302.416246	0.098104	0.529415	14056.317383
9302.417128	0.098152	0.529415	14142.887695
9302.418215	0.098134	0.529415	14249.558594
9302.419170	0.098064	0.529415	14343.209961
9302.420032	0.097969	0.529415	14427.659180
9302.421059	0.098170	0.529415	14528.479492
9302.422090	0.098042	0.529415	14629.560547
9302.422959	0.098009	0.529415	14714.730469
9303.453127	1.078392	0.612632	462.630341
9303.454124	1.565724	0.612632	2023.657104
9303.455172	1.548153	0.612632	3646.121582
9303.456066	1.507434	0.612632	4993.767578
9303.456927	1.467067	0.612632	6256.912109
9303.458034	1.422510	0.612632	7831.630371
9303.459006	1.383351	0.612632	9176.247070
9303.459872	1.349919	0.612632	10345.277344
9303.460883	1.313221	0.612632	11672.944336
9303.461938	1.276780	0.612632	13019.947266
9303.462819	0.823989	0.612632	13745.881836
9303.463706	0.113800	0.612632	13846.822266
9303.464801	0.098090	0.612632	13954.230469
9303.465767	0.098046	0.612632	14048.942383
9303.466636	0.098170	0.612632	14134.251953
9303.467659	0.098221	0.612632	14234.732422
9303.468699	0.098024	0.612632	14336.676758
9303.469587	0.098075	0.612632	14423.767578
9303.470517	0.098199	0.612632	14515.092773
9303.471584	0.098053	0.612632	14619.714844
9303.472524	0.098134	0.612632	14711.959961
9304.459715	1.073401	0.508395	459.415558
9304.460723	1.566057	0.508395	2038.001099
9304.461780	1.547662	0.508395	3673.880371
9304.462667	1.506962	0.508395	5010.555664
9304.463529	1.466459	0.508395	6274.643066
9304.464633	1.422151	0.508395	7844.697754
9304.465599	1.383267	0.508395	9180.933594
9304.466463	1.349912	0.508395	10347.257812
9304.467519	1.311339	0.508395	11732.032227
9304.468563	1.275406	0.508395	13063.556641
9304.469456	0.775345	0.508395	13755.940430
9304.470380	0.109684	0.508395	13857.288086
9304.471436	0.098075	0.508395	13960.855469
9304.472380	0.098101	0.508395	14053.462891
9304.473248	0.098126	0.508395	14138.636719
9304.474261	0.098112	0.508395	14238.023437
9304.475278	0.098049	0.508395	14337.739258
9304.476174	0.098090	0.508395	14425.627930
9304.477106	0.098199	0.508395	14517.149414
9304.478174	0.098174	0.508395	14621.999023
9304.479106	0.098126	0.508395	14713.453125
9305.507290	1.097996	0.588128	500.686005
9305.508406	1.571660	0.588128	2254.658691
9305.509279	1.548878	0.588128	3606.829346
9305.510150	1.509624	0.588128	4921.711914
9305.511167	1.464371	0.588128	6410.977539
9305.512134	1.423883	0.588128	7787.872070
9305.513016	1.388013	0.588128	9012.099609
9305.513888	1.352783	0.588128	10191.726562
9305.515015	1.313580	0.588128	11672.131836
9305.515921	1.281577	0.588128	12833.240234
9305.516793	1.017220	0.588128	13720.256836
9305.517842	0.123032	0.588128	13849.317383
9305.518823	0.098035	0.588128	13945.489258
9305.519696	0.098093	0.588128	14031.125000
9305.520561	0.098167	0.588128	14116.039062
9305.521658	0.098079	0.588128	14223.630859
9305.522545	0.098024	0.588128	14310.578125
9305.523419	0.098108	0.588128	14396.324219
9305.524410	0.098093	0.588128	14493.534180
9305.525404	0.098042	0.588128	14590.988281
9305.526303	0.098104	0.588128	14679.183594
9306.513999	1.205673	0.493567	679.999329
9306.515028	1.572836	0.493567	2298.447266
9306.515913	1.547241	0.493567	3667.755859
9306.516856	1.504768	0.493567	5086.751953
9306.517923	1.457325	0.493567	6641.718262
9306.518870	1.417991	0.493567	7984.555664
9306.519745	1.382410	0.493567	9194.164062
9306.520777	1.343152	0.493567	10580.296875
9306.521805	1.305952	0.493567	11922.815430
9306.522698	1.275088	0.493567	13061.468750
9306.523667	0.691047	0.493567	13731.093750
9306.524706	0.100679	0.493567	13835.699219
9306.525633	0.098126	0.493567	13926.662109
9306.526497	0.098115	0.493567	14011.433594
9306.527572	0.098203	0.493567	14117.001953
9306.528567	0.098060	0.493567	14214.572266
9306.529455	0.098156	0.493567	14301.734375
9306.530428	0.098177	0.493567	14397.260742
9306.531472	0.098071	0.493567	14499.647461
9306.532383	0.097976	0.493567	14588.903320
9306.533243	0.098104	0.493567	14673.273437
9307.563546	1.126523	0.565738	585.792236
9307.564618	1.571649	0.565738	2270.600098
9307.565552	1.545293	0.565738	3713.903809
9307.566424	1.504801	0.565738	5026.090332
9307.567515	1.457640	0.565738	6616.375977
9307.568509	1.415988	0.565738	8023.867676
9307.569398	1.380461	0.565738	9251.097656
9307.570373	1.343529	0.565738	10561.038086
9307.571443	1.305073	0.565738	11957.466797
9307.572350	1.273033	0.565738	13112.108398
9307.573220	0.714009	0.565738	13733.295898
9307.574308	0.101016	0.565738	13843.201172
9307.575269	0.098057	0.565738	13937.433594
9307.576131	0.097969	0.565738	14021.882812
9307.577200	0.098210	0.565738	14126.870117
9307.578231	0.098134	0.565738	14228.045898
9307.579108	0.098097	0.565738	14314.077148
9307.579999	0.098082	0.565738	14401.468750
9307.581085	0.098126	0.565738	14508.034180
9307.582033	0.098035	0.565738	14600.970703
9307.582892	0.098082	0.565738	14685.223633
9308.568084	1.141022	0.480422	587.626221
9308.568962	1.569390	0.480422	1965.550415
9308.569856	1.554342	0.480422	3355.132324
9308.570958	1.506782	0.480422	5015.606445
9308.571914	1.464053	0.480422	6415.241211
9308.572780	1.427490	0.480422	7651.447754
9308.573808	1.386182	0.480422	9076.442383
9308.574839	1.346979	0.480422	10465.177734
9308.575727	1.313884	0.480422	11631.907227
9308.576665	1.281303	0.480422	12833.769531
9308.577728	0.777334	0.480422	13660.075195
9308.578662	0.106520	0.480422	13759.564453
9308.579521	0.097991	0.480422	13843.738281
9308.580555	0.098134	0.480422	13945.208008
9308.581578	0.098031	0.480422	14045.494141
9308.582465	0.098097	0.480422	14132.505859
9308.583417	0.098181	0.480422	14225.974609
9308.584476	0.098086	0.480422	14329.847656
9308.585405	0.098013	0.480422	14420.901367
9308.586275	0.098075	0.480422	14506.226562
9308.587340	0.098108	0.480422	14610.711914
9309.617694	1.151887	0.555212	587.462463
9309.618625	1.570272	0.555212	2049.385986
9309.619490	1.554324	0.555212	3393.875977
9309.620457	1.511565	0.555212	4855.559082
9309.621479	1.465404	0.555212	6353.202148
9309.622377	1.427611	0.555212	7635.196777
9309.623249	1.391730	0.555212	8848.785156
9309.624309	1.351483	0.555212	10281.357422
9309.625246	1.316796	0.555212	11515.195312
9309.626130	1.285811	0.555212	12651.851562
9309.627102	1.004044	0.555212	13627.782227
9309.628135	0.121937	0.555212	13753.743164
9309.629030	0.097972	0.555212	13841.428711
9309.629893	0.098002	0.555212	13926.003906
9309.630951	0.098046	0.555212	14029.736328
9309.631882	0.097928	0.555212	14120.908203
9309.632755	0.097987	0.555212	14206.451172
9309.633702	0.098053	0.555212	14299.307617
9309.634757	0.098042	0.555212	14402.742187
9309.635630	0.098042	0.555212	14488.333008
9309.636496	0.098079	0.555212	14573.269531
9310.621231	1.170473	0.468205	620.350403
9310.622111	1.569825	0.468205	2001.796875
9310.622978	1.555664	0.468205	3350.557617
9310.623863	1.515172	0.468205	4691.484863
9310.624899	1.469597	0.468205	6213.987305
9310.625804	1.431394	0.468205	7509.398926
9310.626692	1.395509	0.468205	8748.611328
9310.627687	1.357251	0.468205	10099.076172
9310.628635	1.321315	0.468205	11351.682617
9310.629567	1.288766	0.468205	12552.812500
9310.630436	1.149500	0.468205	13551.727539
9310.631462	0.173884	0.468205	13730.132812
9310.632337	0.097906	0.468205	13815.800781
9310.633206	0.098097	0.468205	13901.046875
9310.634187	0.098042	0.468205	13997.226562
9310.635116	0.098115	0.468205	14088.375977
9310.636031	0.098038	0.468205	14178.081055
9310.636909	0.098112	0.468205	14264.222656
9310.637920	0.098112	0.468205	14363.413086
9310.638816	0.098097	0.468205	14451.307617
9310.639689	0.098174	0.468205	14537.013672
9311.674848	1.120719	0.510929	513.289307
9311.675740	1.566998	0.510929	1911.051880
9311.676736	1.552782	0.510929	3457.622559
9311.677790	1.506628	0.510929	5045.608887
9311.678679	1.465968	0.510929	6348.854492
9311.679577	1.427362	0.510929	7630.625488
9311.680673	1.383992	0.510929	9147.480469
9311.681637	1.347166	0.510929	10446.148437
9311.682507	1.315177	0.510929	11590.352539
9311.683558	1.278508	0.510929	12934.064453
9311.684584	0.734733	0.510929	13687.900391
9311.685476	0.106399	0.510929	13782.808594
9311.686429	0.098046	0.510929	13876.246094
9311.687471	0.098002	0.510929	13978.364258
9311.688409	0.098101	0.510929	14070.382812
9311.689273	0.098090	0.510929	14155.131836
9311.690326	0.098134	0.510929	14258.466797
9311.691342	0.098020	0.510929	14358.054687
9311.692220	0.098053	0.510929	14444.145508
9311.693201	0.098046	0.510929	14540.328125
9311.694254	0.098046	0.510929	14643.570312
9312.673337	1.194976	0.462895	650.066711
9312.674391	1.572568	0.462895	2307.553711
9312.675286	1.546637	0.462895	3691.793945
9312.676209	1.504922	0.462895	5080.836914
9312.677286	1.457227	0.462895	6650.270020
9312.678249	1.417386	0.462895	8015.212891
9312.679119	1.381886	0.462895	9217.454102
9312.680182	1.341775	0.462895	10643.760742
9312.681201	1.304978	0.462895	11973.533203
9312.682098	1.273678	0.462895	13116.022461
9312.683064	0.656700	0.462895	13750.395508
9312.684121	0.100159	0.462895	13856.263672
9312.685037	0.098130	0.462895	13946.150391
9312.685900	0.098060	0.462895	14030.776367
9312.686971	0.098119	0.462895	14135.861328
9312.687971	0.098024	0.462895	14233.884766
9312.688850	0.098064	0.462895	14320.083008
9312.689834	0.098053	0.462895	14416.567383
9312.690883	0.098174	0.462895	14519.551758
9312.691772	0.098024	0.462895	14606.694336
9312.692639	0.098079	0.462895	14691.728516
9313.730079	1.152543	0.496125	591.254395
9313.731103	1.572224	0.496125	2201.211914
9313.731984	1.549618	0.496125	3566.425293
9313.732975	1.506431	0.496125	5059.297852
9313.734020	1.459270	0.496125	6584.235352
9313.734944	1.420488	0.496125	7896.766602
9313.735810	1.384376	0.496125	9095.636719
9313.736891	1.344617	0.496125	10549.167969
9313.737892	1.307743	0.496125	11858.218750
9313.738766	1.277161	0.496125	12974.457031
9313.739761	0.728258	0.496125	13699.074219
9313.740800	0.101719	0.496125	13804.759766
9313.741702	0.097998	0.496125	13893.154297
9313.742572	0.098016	0.496125	13978.428711
9313.743658	0.097954	0.496125	14084.806641
9313.744621	0.097961	0.496125	14179.143555
9313.745506	0.098027	0.496125	14265.897461
9313.746502	0.098177	0.496125	14363.682617
9313.747554	0.098071	0.496125	14466.853516
9313.748438	0.098104	0.496125	14553.578125
9313.749307	0.098119	0.496125	14638.843750
9314.725307	1.060492	0.451370	445.406616
9314.726283	1.564160	0.451370	1972.026855
9314.727345	1.548453	0.451370	3616.484375
9314.728251	1.507628	0.451370	4982.395508
9314.729123	1.466851	0.451370	6261.489258
9314.730222	1.422129	0.451370	7824.409180
9314.731188	1.382985	0.451370	9160.372070
9314.732074	1.349436	0.451370	10355.972656
9314.733082	1.312551	0.451370	11679.024414
9314.734145	1.275780	0.451370	13035.178711
9314.735042	0.789371	0.451370	13743.245117
9314.735931	0.110651	0.451370	13841.613281
9314.737018	0.098112	0.451370	13948.260742
9314.737981	0.098115	0.451370	14042.746094
9314.738842	0.098082	0.451370	14127.195312
9314.739867	0.098243	0.451370	14227.894531
9314.740891	0.098035	0.451370	14328.282227
9314.741768	0.098090	0.451370	14414.306641
9314.742692	0.098108	0.451370	14504.958008
9314.743753	0.098082	0.451370	14609.023437
9314.744691	0.098112	0.451370	14701.051758
9315.786292	1.192361	0.455966	653.413696
9315.787359	1.572268	0.455966	2331.023682
9315.788254	1.545948	0.455966	3714.647461
9315.789148	1.504391	0.455966	5059.572754
9315.790251	1.456780	0.455966	6666.400879
9315.791206	1.417156	0.455966	8019.784668
9315.792077	1.381827	0.455966	9223.356445
9315.793108	1.342866	0.455966	10607.851562
9315.794145	1.305359	0.455966	11961.508789
9315.795037	1.274172	0.455966	13098.070312
9315.795987	0.695361	0.455966	13758.664062
9315.797052	0.100247	0.455966	13865.426758
9315.797989	0.098020	0.455966	13957.271484
9315.798852	0.098097	0.455966	14041.928711
9315.799907	0.098170	0.455966	14145.498047
9315.800910	0.098053	0.455966	14243.844727
9315.801794	0.098038	0.455966	14330.510742
9315.802765	0.098232	0.455966	14425.894531
9315.803794	0.098174	0.455966	14526.915039
9315.804719	0.098159	0.455966	14617.711914
9315.805581	0.098232	0.455966	14702.388672
9316.777452	1.117079	0.434774	523.909973
9316.778333	1.566493	0.434774	1903.990234
9316.779204	1.557825	0.434774	3260.855469
9316.780168	1.516333	0.434774	4722.600586
9316.781146	1.471652	0.434774	6161.875977
9316.782073	1.432555	0.434774	7489.854492
9316.782937	1.396780	0.434774	8696.671875
9316.783973	1.357756	0.434774	10103.307617
9316.784853	1.323893	0.434774	11268.333008
9316.785735	1.292523	0.434774	12408.337891
9316.786626	1.183528	0.434774	13462.861328
9316.787660	0.205657	0.434774	13675.510742
9316.788589	0.097855	0.434774	13766.417969
9316.789463	0.098104	0.434774	13852.161133
9316.790459	0.098057	0.434774	13949.825195
9316.791373	0.098093	0.434774	14039.482422
9316.792299	0.098035	0.434774	14130.262695
9316.793161	0.097991	0.434774	14214.730469
9316.794195	0.097987	0.434774	14316.048828
9316.795078	0.098093	0.434774	14402.665039
9316.795943	0.098101	0.434774	14487.522461
9317.841354	1.087950	0.426495	467.818695
9317.842242	1.563604	0.426495	1856.298706
9317.843333	1.550288	0.426495	3547.663086
9317.844296	1.507200	0.426495	4999.096191
9317.845167	1.467814	0.426495	6277.562012
9317.846204	1.424659	0.426495	7754.933594
9317.847228	1.383516	0.426495	9171.653320
9317.848116	1.348953	0.426495	10369.523437
9317.849061	1.314474	0.426495	11611.701172
9317.850125	1.277234	0.426495	12970.677734
9317.851072	0.793901	0.426495	13722.501953
9317.851930	0.111292	0.426495	13817.990234
9317.852953	0.098082	0.426495	13918.328125
9317.853968	0.098090	0.426495	14017.888672
9317.854857	0.098046	0.426495	14105.050781
9317.855802	0.098126	0.426495	14197.780273
9317.856859	0.098046	0.426495	14301.414062
9317.857784	0.098104	0.426495	14392.160156
9317.858650	0.098035	0.426495	14477.058594
9317.859719	0.098141	0.426495	14581.970703
9317.860729	0.098101	0.426495	14681.052734
9318.829600	1.152579	0.425621	593.578369
9318.830631	1.572290	0.425621	2214.609375
9318.831512	1.549215	0.425621	3579.467773
9318.832513	1.505343	0.425621	5086.316406
9318.833586	1.457534	0.425621	6650.250488
9318.834488	1.419155	0.425621	7930.328613
9318.835352	1.383171	0.425621	9125.388672
9318.836425	1.342881	0.425621	10566.299805
9318.837434	1.306186	0.425621	11884.242187
9318.838333	1.275414	0.425621	13030.838867
9318.839327	0.667313	0.425621	13694.148437
9318.840383	0.100280	0.425621	13800.043945
9318.841273	0.098020	0.425621	13887.282227
9318.842163	0.098097	0.425621	13974.588867
9318.843259	0.098192	0.425621	14082.207031
9318.844206	0.098009	0.425621	14175.021484
9318.845075	0.097969	0.425621	14260.156250
9318.846124	0.098177	0.425621	14363.144531
9318.847160	0.097954	0.425621	14464.625000
9318.848054	0.098049	0.425621	14552.281250
9318.848989	0.098207	0.425621	14644.104492
9319.895577	1.115574	0.414886	581.213928
9319.896638	1.571375	0.414886	2248.442383
9319.897574	1.545894	0.414886	3695.398926
9319.898438	1.506237	0.414886	4996.787109
9319.899487	1.459907	0.414886	6528.229492
9319.900500	1.417401	0.414886	7964.056641
9319.901390	1.382040	0.414886	9194.072266
9319.902368	1.345166	0.414886	10509.644531
9319.903423	1.306531	0.414886	11888.034180
9319.904340	1.274608	0.414886	13056.849609
9319.905214	0.761129	0.414886	13722.076172
9319.906303	0.101609	0.414886	13832.728516
9319.907291	0.098064	0.414886	13929.615234
9319.908177	0.098119	0.414886	14016.548828
9319.909157	0.098156	0.414886	14112.741211
9319.910204	0.098104	0.414886	14215.456055
9319.911104	0.098035	0.414886	14303.687500
9319.911962	0.098060	0.414886	14387.823242
9319.913056	0.098188	0.414886	14495.241211
9319.914015	0.098005	0.414886	14589.228516
9319.914889	0.098060	0.414886	14674.933594
9320.881596	1.064879	0.435362	453.638519
9320.882463	1.563025	0.435362	1808.781128
9320.883526	1.553258	0.435362	3459.894531
9320.884421	1.512971	0.435362	4814.003906
9320.885294	1.473106	0.435362	6100.024902
9320.886187	1.434335	0.435362	7380.885742
9320.887225	1.392942	0.435362	8826.759766
9320.888120	1.358247	0.435362	10042.390625
9320.888990	1.325867	0.435362	11195.894531
9320.889990	1.290553	0.435362	12486.447266
9320.890909	1.182927	0.435362	13573.557617
9320.891826	0.222762	0.435362	13777.831055
9320.892704	0.098126	0.435362	13863.986328
9320.893741	0.098137	0.435362	13965.754883
9320.894635	0.098031	0.435362	14053.394531
9320.895511	0.098042	0.435362	14139.279297
9320.896479	0.098163	0.435362	14234.300781
9320.897434	0.098093	0.435362	14327.979492
9320.898355	0.098093	0.435362	14418.323242
9320.899223	0.098086	0.435362	14503.461914
9320.900264	0.098196	0.435362	14605.683594
9321.951678	1.076781	0.396166	457.631927
9321.952743	1.569653	0.396166	2129.312744
9321.953739	1.546937	0.396166	3670.062256
9321.954629	1.506427	0.396166	5010.782227
9321.955552	1.465594	0.396166	6363.525879
9321.956420	1.427820	0.396166	7602.873535
9321.957423	1.388265	0.396166	8995.303711
9321.958347	1.352974	0.396166	10245.451172
9321.959228	1.320421	0.396166	11408.742187
9321.960194	1.287466	0.396166	12652.434570
9321.961130	1.082670	0.396166	13665.813477
9321.962020	0.165037	0.396166	13812.696289
9321.962885	0.097950	0.396166	13897.423828
9321.963907	0.098049	0.396166	13997.629883
9321.964826	0.098042	0.396166	14087.730469
9321.965707	0.098093	0.396166	14174.150391
9321.966617	0.098104	0.396166	14263.424805
9321.967580	0.098057	0.396166	14357.853516
9321.968501	0.098082	0.396166	14448.187500
9321.969365	0.098093	0.396166	14532.940430
9321.970395	0.098020	0.396166	14633.901367
9322.934716	1.063594	0.430552	449.900146
9322.935759	1.568595	0.430552	2085.944824
9322.936791	1.546853	0.430552	3682.297363
9322.937675	1.506786	0.430552	5014.295898
9322.938647	1.464214	0.430552	6437.511719
9322.939704	1.419507	0.430552	7937.930664
9322.940634	1.381791	0.430552	9222.996094
9322.941498	1.348022	0.430552	10387.687500
9322.942553	1.309695	0.430552	11769.416016
9322.943568	1.274312	0.430552	13062.841797
9322.944469	0.762645	0.430552	13749.985352
9322.945445	0.107607	0.430552	13855.009766
9322.946502	0.098090	0.430552	13958.690430
9322.947417	0.098042	0.430552	14048.398437
9322.948283	0.098082	0.430552	14133.337891
9322.949369	0.098141	0.430552	14239.918945
9322.950342	0.098020	0.430552	14335.291992
9322.951237	0.098101	0.430552	14423.091797
9322.952224	0.098156	0.430552	14519.971680
9322.953265	0.098115	0.430552	14622.109375
9322.954164	0.098013	0.430552	14710.222656
9324.006876	1.106715	0.374163	500.235229
9324.007755	1.565636	0.374163	1876.429199
9324.008763	1.552928	0.374163	3441.781250
9324.009838	1.506262	0.374163	5061.013184
9324.010717	1.465532	0.374163	6349.215820
9324.011588	1.426824	0.374163	7591.979492
9324.012699	1.383907	0.374163	9129.500977
9324.013662	1.347316	0.374163	10426.965820
9324.014534	1.315302	0.374163	11573.909180
9324.015576	1.278801	0.374163	12906.419922
9324.016621	0.727745	0.374163	13666.914062
9324.017512	0.105344	0.374163	13760.775391
9324.018440	0.098079	0.374163	13851.791992
9324.019507	0.098101	0.374163	13956.464844
9324.020461	0.098079	0.374163	14050.032227
9324.021324	0.098163	0.374163	14134.747070
9324.022373	0.098090	0.374163	14237.642578
9324.023389	0.098020	0.374163	14337.230469
9324.024276	0.098112	0.374163	14424.255859
9324.025235	0.098163	0.374163	14518.393555
9324.026282	0.097998	0.374163	14620.997070
9324.988948	1.153140	0.417951	584.641785
9324.989976	1.572125	0.417951	2200.786621
9324.990870	1.549105	0.417951	3585.686523
9324.991846	1.505768	0.417951	5055.315918
9324.992901	1.458472	0.417951	6594.003418
9324.993825	1.419976	0.417951	7906.060547
9324.994691	1.384054	0.417951	9104.651367
9324.995764	1.344086	0.417951	10546.855469
9324.996759	1.307717	0.417951	11848.034180
9324.997653	1.276622	0.417951	12989.334961
9324.998654	0.706066	0.417951	13696.106445
9324.999694	0.101484	0.417951	13801.650391
9325.000587	0.098104	0.417951	13889.257812
9325.001447	0.098177	0.417951	13973.690430
9325.002540	0.098046	0.417951	14080.854492
9325.003496	0.098075	0.417951	14174.614258
9325.004370	0.098075	0.417951	14260.332031
9325.005364	0.098174	0.417951	14357.916992
9325.006410	0.098057	0.417951	14460.484375
9325.007282	0.098046	0.417951	14545.980469
9325.008154	0.098185	0.417951	14631.597656
9326.059986	1.100413	0.375400	490.784027
9326.060866	1.565643	0.375400	1868.550171
9326.061731	1.557543	0.375400	3215.824707
9326.062849	1.510433	0.375400	4904.489258
9326.063772	1.468107	0.375400	6259.551758
9326.064655	1.431277	0.375400	7523.369141
9326.065659	1.391060	0.375400	8919.993164
9326.066656	1.351824	0.375400	10267.761719
9326.067547	1.319081	0.375400	11443.062500
9326.068410	1.287623	0.375400	12554.281250
9326.069508	0.988583	0.375400	13639.745117
9326.070408	0.137860	0.375400	13763.819336
9326.071272	0.097980	0.375400	13848.473633
9326.072251	0.098053	0.375400	13944.467773
9326.073255	0.098093	0.375400	14042.953125
9326.074140	0.098057	0.375400	14129.733398
9326.075003	0.098141	0.375400	14214.428711
9326.076053	0.098192	0.375400	14317.530273
9326.076987	0.098064	0.375400	14409.122070
9326.077863	0.098126	0.375400	14495.081055
9326.078819	0.098174	0.375400	14588.935547
9327.042084	1.158691	0.418346	595.567383
9327.043116	1.572180	0.418346	2218.057129
9327.043996	1.548867	0.418346	3581.060303
9327.044920	1.507972	0.418346	4974.426758
9327.045781	1.468151	0.418346	6238.504395
9327.046754	1.427465	0.418346	7627.427734
9327.047687	1.390001	0.418346	8924.298828
9327.048581	1.355563	0.418346	10136.171875
9327.049510	1.321761	0.418346	11364.087891
9327.050448	1.287623	0.418346	12571.878906
9327.051376	1.152766	0.418346	13641.645508
9327.052245	0.202742	0.418346	13817.828125
9327.053281	0.097892	0.418346	13919.244141
9327.054164	0.098020	0.418346	14005.795898
9327.055078	0.097991	0.418346	14095.359375
9327.055940	0.098009	0.418346	14179.842773
9327.056895	0.098152	0.418346	14273.578125
9327.057829	0.098093	0.418346	14365.197266
9327.058704	0.098141	0.418346	14451.070312
9327.059708	0.098123	0.418346	14549.584961
9327.060603	0.098225	0.418346	14637.496094
9328.114109	1.063444	0.360600	449.836670
9328.115145	1.567332	0.360600	2073.592285
9328.116184	1.547216	0.360600	3681.149414
9328.117069	1.506676	0.360600	5014.557617
9328.117986	1.464998	0.360600	6357.960449
9328.119071	1.420587	0.360600	7899.297363
9328.120018	1.382238	0.360600	9208.276367
9328.120883	1.348660	0.360600	10374.867187
9328.121924	1.310402	0.360600	11738.995117
9328.122952	1.274762	0.360600	13049.450195
9328.123853	0.773452	0.360600	13746.330078
9328.124810	0.109197	0.360600	13850.831055
9328.125853	0.097991	0.360600	13953.035156
9328.126768	0.098119	0.360600	14042.813477
9328.127635	0.098035	0.360600	14127.809570
9328.128712	0.098181	0.360600	14233.550781
9328.129711	0.097983	0.360600	14331.436523
9328.130607	0.098093	0.360600	14419.328125
9328.131570	0.098119	0.360600	14513.816406
9328.132632	0.098075	0.360600	14617.971680
9328.133551	0.098090	0.360600	14708.116211
9329.096178	1.123253	0.419397	534.668518
9329.097060	1.567240	0.419397	1916.974121
9329.098027	1.553796	0.419397	3419.495117
9329.099086	1.506160	0.419397	5014.518066
9329.100025	1.464313	0.419397	6389.507812
9329.100893	1.427128	0.419397	7628.254883
9329.101978	1.383933	0.419397	9129.822266
9329.102979	1.345488	0.419397	10476.656250
9329.103872	1.312961	0.419397	11649.130859
9329.104847	1.279347	0.419397	12896.494141
9329.105900	0.734930	0.419397	13670.375977
9329.106804	0.105319	0.419397	13765.583984
9329.107664	0.097885	0.419397	13849.764648
9329.108739	0.098082	0.419397	13955.203125
9329.109719	0.098112	0.419397	14051.352539
9329.110599	0.098035	0.419397	14137.623047
9329.111598	0.098317	0.419397	14235.841797
9329.112626	0.098093	0.419397	14336.681641
9329.113512	0.098126	0.419397	14423.621094
9329.114369	0.098159	0.419397	14507.743164
9329.115466	0.098159	0.419397	14615.423828
9330.166233	1.111403	0.355242	496.796967
9330.167120	1.566409	0.355242	1886.201416
9330.168113	1.553485	0.355242	3428.812012
9330.169176	1.506456	0.355242	5030.174805
9330.170086	1.465027	0.355242	6363.349121
9330.170948	1.427351	0.355242	7593.725586
9330.172035	1.384878	0.355242	9099.087891
9330.173007	1.347598	0.355242	10408.953125
9330.173882	1.315536	0.355242	11560.046875
9330.174982	1.277402	0.355242	12965.189453
9330.176013	0.695200	0.355242	13681.940430
9330.176892	0.104817	0.355242	13774.074219
9330.177816	0.098005	0.355242	13864.630859
9330.178877	0.098016	0.355242	13968.625977
9330.179817	0.098075	0.355242	14060.816406
9330.180678	0.098236	0.355242	14145.397461
9330.181723	0.098185	0.355242	14248.000977
9330.182748	0.098075	0.355242	14348.527344
9330.183615	0.098024	0.355242	14433.513672
9330.184577	0.098119	0.355242	14527.904297
9330.185628	0.098068	0.355242	14630.973633
9331.150282	1.082150	0.416171	472.899384
9331.151147	1.563318	0.416171	1825.169434
9331.152219	1.551614	0.416171	3488.499512
9331.153147	1.510203	0.416171	4889.967773
9331.154018	1.470740	0.416171	6170.981934
9331.154987	1.430098	0.416171	7556.746582
9331.156027	1.387910	0.416171	9000.172852
9331.156916	1.353267	0.416171	10203.226562
9331.157787	1.320385	0.416171	11353.281250
9331.158844	1.283888	0.416171	12710.350586
9331.159779	1.029756	0.416171	13673.171875
9331.160661	0.148583	0.416171	13804.221680
9331.161634	0.097994	0.416171	13899.570312
9331.162656	0.098075	0.416171	13999.802734
9331.163542	0.098082	0.416171	14086.704102
9331.164402	0.098119	0.416171	14171.085937
9331.165455	0.098192	0.416171	14274.482422
9331.166383	0.097976	0.416171	14365.404297
9331.167252	0.098086	0.416171	14450.640625
9331.168199	0.098035	0.416171	14543.479492
9331.169253	0.098104	0.416171	14646.881836
9332.219359	1.113787	0.351838	514.569397
9332.220236	1.566013	0.351838	1887.962891
9332.221242	1.553265	0.351838	3450.547852
9332.222302	1.506372	0.351838	5047.302246
9332.223196	1.465052	0.351838	6357.059082
9332.224108	1.427296	0.351838	7658.752930
9332.224981	1.391572	0.351838	8873.595703
9332.225936	1.354541	0.351838	10167.182617
9332.226870	1.319817	0.351838	11399.891602
9332.227793	1.287744	0.351838	12588.479492
9332.228667	1.165085	0.351838	13606.763672
9332.229634	0.191715	0.351838	13792.152344
9332.230580	0.097991	0.351838	13884.851562
9332.231468	0.098170	0.351838	13972.026367
9332.232359	0.098130	0.351838	14059.459961
9332.233291	0.098042	0.351838	14150.834961
9332.234219	0.098177	0.351838	14241.943359
9332.235076	0.098210	0.351838	14326.109375
9332.236088	0.098068	0.351838	14425.353516
9332.236984	0.098097	0.351838	14513.248047
9332.237903	0.098181	0.351838	14603.476562
9333.204556	1.191339	0.403212	680.254578
9333.205612	1.571986	0.403212	2340.271973
9333.206488	1.545699	0.403212	3694.304687
9333.207364	1.504270	0.403212	5012.045410
9333.208474	1.456967	0.403212	6629.278320
9333.209432	1.417222	0.403212	7986.976562
9333.210307	1.382153	0.403212	9196.361328
9333.211340	1.342888	0.403212	10583.564453
9333.212373	1.305579	0.403212	11932.227539
9333.213267	1.274293	0.403212	13071.445312
9333.214211	0.710350	0.403212	13742.015625
9333.215288	0.100280	0.403212	13850.016602
9333.216229	0.097965	0.403212	13942.202148
9333.217091	0.098093	0.403212	14026.758789
9333.218149	0.098123	0.403212	14130.572266
9333.219159	0.098002	0.403212	14229.553711
9333.220046	0.098020	0.403212	14316.497070
9333.221011	0.098218	0.403212	14411.277344
9333.222042	0.097994	0.403212	14512.309570
9333.222961	0.098031	0.403212	14602.400391
9333.223825	0.098097	0.403212	14687.156250
9334.271505	1.148207	0.351963	572.955139
9334.272495	1.571737	0.351963	2128.974854
9334.273391	1.550603	0.351963	3518.315186
9334.274372	1.506874	0.351963	4996.558594
9334.275424	1.460347	0.351963	6532.843262
9334.276329	1.422019	0.351963	7819.770508
9334.277194	1.385544	0.351963	9018.266602
9334.278312	1.344606	0.351963	10521.536133
9334.279286	1.309149	0.351963	11796.647461
9334.280157	1.278633	0.351963	12910.336914
9334.281205	0.718176	0.351963	13662.985352
9334.282246	0.101235	0.351963	13768.371094
9334.283134	0.098020	0.351963	13855.413086
9334.284061	0.098082	0.351963	13946.334961
9334.285111	0.098188	0.351963	14049.432617
9334.286060	0.098145	0.351963	14142.572266
9334.286921	0.098163	0.351963	14227.090820
9334.287960	0.098185	0.351963	14329.104492
9334.288975	0.098024	0.351963	14428.598633
9334.289855	0.098148	0.351963	14514.968750
9334.290801	0.098104	0.351963	14607.775391
9335.259607	1.108762	0.383670	493.399200
9335.260533	1.567522	0.383670	1944.924438
9335.261402	1.555602	0.383670	3296.742432
9335.262439	1.511254	0.383670	4863.912598
9335.263328	1.471095	0.383670	6171.715820
9335.264198	1.434258	0.383670	7419.520020
9335.265215	1.393887	0.383670	8837.102539
9335.266120	1.357072	0.383670	10065.251953
9335.267038	1.323391	0.383670	11280.125000
9335.267923	1.291216	0.383670	12422.851562
9335.268964	1.143106	0.383670	13612.824219
9335.269864	0.195136	0.383670	13788.446289
9335.270734	0.097958	0.383670	13873.669922
9335.271702	0.098079	0.383670	13968.610352
9335.272651	0.098101	0.383670	14061.708008
9335.273571	0.098038	0.383670	14151.903320
9335.274439	0.098159	0.383670	14237.105469
9335.275478	0.098108	0.383670	14339.040039
9335.276359	0.097983	0.383670	14425.363281
9335.277221	0.098086	0.383670	14509.913086
9335.278116	0.098174	0.383670	14597.778320
9336.323516	1.072178	0.345019	452.459015
9336.324589	1.569727	0.345019	2136.775635
9336.325586	1.546425	0.345019	3678.561035
9336.326475	1.506500	0.345019	5017.839844
9336.327478	1.462602	0.345019	6484.830078
9336.328528	1.418580	0.345019	7974.339355
9336.329425	1.381875	0.345019	9213.880859
9336.330291	1.347631	0.345019	10380.928711
9336.331394	1.308853	0.345019	11824.592773
9336.332362	1.275004	0.345019	13058.795898
9336.333238	0.805206	0.345019	13764.156250
9336.334251	0.108124	0.345019	13873.685547
9336.335293	0.098053	0.345019	13975.856445
9336.336169	0.098064	0.345019	14061.760742
9336.337048	0.098075	0.345019	14147.968750
9336.338143	0.098130	0.345019	14255.420898
9336.339096	0.098038	0.345019	14348.851562
9336.339966	0.098108	0.345019	14434.205078
9336.340965	0.098167	0.345019	14532.273437
9336.342005	0.098024	0.345019	14634.217773
9336.342899	0.098152	0.345019	14721.965820
9337.313816	1.112102	0.368600	577.180969
9337.314859	1.571085	0.368600	2215.822754
9337.315812	1.545842	0.368600	3689.010498
9337.316676	1.505856	0.368600	4990.069824
9337.317697	1.460621	0.368600	6481.364258
9337.318718	1.417987	0.368600	7929.128906
9337.319613	1.382274	0.368600	9166.264648
9337.320589	1.345770	0.368600	10479.736328
9337.321645	1.306816	0.368600	11859.734375
9337.322566	1.274707	0.368600	13033.739258
9337.323443	0.778901	0.368600	13716.835937
9337.324524	0.102070	0.368600	13827.173828
9337.325500	0.098057	0.368600	13922.876953
9337.326394	0.098060	0.368600	14010.542969
9337.327370	0.098145	0.368600	14106.332031
9337.328411	0.098123	0.368600	14208.477539
9337.329320	0.098086	0.368600	14297.637695
9337.330182	0.098064	0.368600	14382.168945
9337.331274	0.098163	0.368600	14489.362305
9337.332264	0.098119	0.368600	14586.500000
9337.333151	0.098097	0.368600	14673.511719
9338.375621	1.073412	0.346038	464.787323
9338.376489	1.563772	0.346038	1822.141357
9338.377513	1.553133	0.346038	3412.550049
9338.378552	1.507372	0.346038	4978.709473
9338.379452	1.466700	0.346038	6298.739746
9338.380382	1.427637	0.346038	7626.441895
9338.381448	1.384570	0.346038	9102.393555
9338.382398	1.348330	0.346038	10383.306641
9338.383267	1.315763	0.346038	11526.705078
9338.384341	1.278761	0.346038	12900.094727
9338.385346	0.780300	0.346038	13684.296875
9338.386236	0.108754	0.346038	13781.087891
9338.387218	0.098042	0.346038	13877.365234
9338.388264	0.098031	0.346038	13979.905273
9338.389168	0.098060	0.346038	14068.551758
9338.390025	0.098093	0.346038	14152.618164
9338.391098	0.098064	0.346038	14257.840820
9338.392090	0.097983	0.346038	14355.040039
9338.392965	0.098024	0.346038	14440.810547
9338.393950	0.098123	0.346038	14537.460937
9338.394992	0.098137	0.346038	14639.719727
9339.367952	1.143530	0.366675	579.769836
9339.368890	1.570536	0.366675	2052.932617
9339.369754	1.553774	0.366675	3395.393799
9339.370799	1.507614	0.366675	4970.850098
9339.371818	1.462134	0.366675	6460.764648
9339.372715	1.424502	0.366675	7738.542969
9339.373670	1.386592	0.366675	9062.738281
9339.374716	1.345854	0.366675	10470.501953
9339.375645	1.311903	0.366675	11689.259766
9339.376510	1.281185	0.366675	12797.485352
9339.377582	0.795630	0.366675	13650.400391
9339.378596	0.104246	0.366675	13756.105469
9339.379473	0.097980	0.366675	13842.033203
9339.380468	0.098141	0.366675	13939.683594
9339.381510	0.098024	0.366675	14041.824219
9339.382407	0.098027	0.366675	14129.754883
9339.383273	0.098020	0.366675	14214.640625
9339.384351	0.098053	0.366675	14320.341797
9339.385342	0.098060	0.366675	14417.519531
9339.386232	0.098101	0.366675	14504.829102
9339.387209	0.098203	0.366675	14600.773437
9340.426687	1.066761	0.346010	454.440399
9340.427752	1.568514	0.346010	2124.908203
9340.428711	1.548380	0.346010	3609.804687
9340.429588	1.509031	0.346010	4933.224609
9340.430493	1.467634	0.346010	6261.433594
9340.431563	1.424180	0.346010	7785.305664
9340.432451	1.387537	0.346010	9017.438477
9340.433314	1.354069	0.346010	10186.000000
9340.434351	1.315598	0.346010	11550.275391
9340.435327	1.281793	0.346010	12801.305664
9340.436206	1.026244	0.346010	13703.374023
9340.437089	0.149685	0.346010	13835.545898
9340.438177	0.098108	0.346010	13942.287109
9340.439084	0.098068	0.346010	14031.234375
9340.439946	0.098035	0.346010	14115.740234
9340.441039	0.098254	0.346010	14223.131836
9340.442001	0.098031	0.346010	14317.437500
9340.442876	0.098104	0.346010	14403.278320
9340.443751	0.098196	0.346010	14489.199219
9340.444848	0.098112	0.346010	14596.827148
9340.445735	0.097950	0.346010	14683.708984
9341.423066	1.094769	0.358259	488.267090
9341.423933	1.564160	0.358259	1844.393921
9341.424971	1.552405	0.358259	3455.790039
9341.425843	1.512913	0.358259	4775.049805
9341.426726	1.473138	0.358259	6075.831055
9341.427693	1.432943	0.358259	7461.487305
9341.428653	1.393088	0.358259	8798.851562
9341.429575	1.357617	0.358259	10050.574219
9341.430457	1.324618	0.358259	11218.886719
9341.431506	1.288180	0.358259	12570.187500
9341.432408	1.163291	0.358259	13619.475586
9341.433290	0.208839	0.358259	13803.671875
9341.434220	0.098060	0.358259	13894.868164
9341.435205	0.098079	0.358259	13991.475586
9341.436128	0.098035	0.358259	14081.961914
9341.436998	0.098046	0.358259	14167.261719
9341.437989	0.098042	0.358259	14264.420898
9341.438893	0.098016	0.358259	14353.027344
9341.439809	0.098152	0.358259	14442.934570
9341.440675	0.098126	0.358259	14527.912109
9341.441702	0.098086	0.358259	14628.646484
9342.477849	1.152638	0.342444	586.692749
9342.478756	1.569877	0.342444	2010.570923
9342.479626	1.553185	0.342444	3361.841797
9342.480719	1.505556	0.342444	5007.414062
9342.481718	1.460958	0.342444	6466.911133
9342.482614	1.423967	0.342444	7742.786133
9342.483601	1.384497	0.342444	9109.285156
9342.484661	1.344210	0.342444	10534.148437
9342.485560	1.310841	0.342444	11712.594727
9342.486440	1.278995	0.342444	12838.110352
9342.487548	0.712123	0.342444	13627.142578
9342.488492	0.102700	0.342444	13724.091797
9342.489363	0.098046	0.342444	13809.489258
9342.490401	0.098071	0.342444	13911.287109
9342.491422	0.098141	0.342444	14011.489258
9342.492312	0.098068	0.342444	14098.769531
9342.493209	0.098134	0.342444	14186.794922
9342.494292	0.098104	0.342444	14293.041992
9342.495234	0.098027	0.342444	14385.383789
9342.496094	0.098060	0.342444	14469.715820
9342.497138	0.098112	0.342444	14572.144531
9343.477262	1.138715	0.365092	575.050842
9343.478253	1.571499	0.365092	2132.406250
9343.479155	1.549973	0.365092	3530.481934
9343.480146	1.505903	0.365092	5022.832031
9343.481213	1.458944	0.365092	6579.525391
9343.482107	1.421118	0.365092	7850.004883
9343.482982	1.384230	0.365092	9061.206055
9343.484098	1.343284	0.365092	10560.310547
9343.485060	1.308321	0.365092	11818.916016
9343.485937	1.277633	0.365092	12939.400391
9343.486986	0.697200	0.365092	13670.762695
9343.488010	0.101067	0.365092	13774.254883
9343.488901	0.097983	0.365092	13861.557617
9343.489827	0.098137	0.365092	13952.432617
9343.490875	0.098119	0.365092	14055.260742
9343.491809	0.098071	0.365092	14146.859375
9343.492668	0.098126	0.365092	14231.149414
9343.493710	0.098159	0.365092	14333.431641
9343.494727	0.098057	0.365092	14433.155273
9343.495601	0.098090	0.365092	14518.885742
9343.496547	0.098156	0.365092	14611.741211
9344.528835	1.069153	0.346396	458.666565
9344.529696	1.562575	0.346396	1804.043213
9344.530761	1.551790	0.346396	3456.699219
9344.531713	1.509737	0.346396	4893.969238
9344.532597	1.469890	0.346396	6193.352051
9344.533545	1.430142	0.346396	7549.125977
9344.534597	1.387647	0.346396	9008.929687
9344.535479	1.353014	0.346396	10202.288086
9344.536350	1.320762	0.346396	11352.671875
9344.537389	1.284078	0.346396	12686.829102
9344.538352	1.020363	0.346396	13669.438477
9344.539230	0.146265	0.346396	13797.858398
9344.540167	0.097972	0.346396	13889.658203
9344.541233	0.098046	0.346396	13994.174805
9344.542127	0.098060	0.346396	14081.840820
9344.542988	0.098086	0.346396	14166.292969
9344.544025	0.098057	0.346396	14267.977539
9344.544991	0.098016	0.346396	14362.661133
9344.545867	0.098185	0.346396	14448.670898
9344.546772	0.098031	0.346396	14537.388672
9344.547839	0.098075	0.346396	14642.034180
9345.532355	1.068160	0.368995	456.104492
9345.533363	1.566317	0.368995	2034.952148
9345.534415	1.547051	0.368995	3662.449707
9345.535297	1.506544	0.368995	4991.221680
9345.536196	1.465492	0.368995	6308.698730
9345.537278	1.421136	0.368995	7846.368164
9345.538238	1.382593	0.368995	9173.657227
9345.539105	1.349081	0.368995	10343.310547
9345.540169	1.310720	0.368995	11737.916992
9345.541202	1.274784	0.368995	13054.768555
9345.542091	0.778539	0.368995	13746.889648
9345.543046	0.109391	0.368995	13851.358398
9345.544084	0.098060	0.368995	13953.144531
9345.545009	0.098049	0.368995	14043.839844
9345.545871	0.098112	0.368995	14128.412109
9345.546914	0.098152	0.368995	14230.784180
9345.547933	0.098075	0.368995	14330.722656
9345.548820	0.098086	0.368995	14417.724609
9345.549779	0.098188	0.368995	14511.887695
9345.550815	0.098298	0.368995	14613.724609
9345.551740	0.098130	0.368995	14704.495117
